[MS Spectrum]	
# of Peaks	314
Raw Spectrum	2.117 (scan : 71)
Background	No Background Spectrum
Base Peak	m/z 43.10 (Inten : 13,585)
Event#	1
m/z	Absolute Intensity
35.00	202
36.00	10
37.00	138
38.00	166
39.05	1610
40.05	3457
41.10	6414
42.10	5289
43.10	13585
44.05	3235
45.10	239
46.10	39
47.10	406
48.10	74
49.10	102
50.10	354
51.10	258
52.10	246
53.10	327
54.10	183
55.15	1125
56.10	5375
57.15	5613
58.20	510
59.20	90
60.20	182
61.20	55
62.20	11
63.20	86
64.20	46
65.20	140
67.20	140
68.20	102
69.20	436
70.20	542
71.20	407
72.20	73
73.20	27
74.20	52
75.20	63
76.20	60
77.20	178
78.20	316
79.20	164
80.20	42
81.20	2
82.20	260
83.10	127
84.15	2291
85.15	5937
86.10	566
87.10	62
89.10	8
91.10	19
93.10	55
94.10	58
95.10	52
97.10	44
98.10	103
99.10	57
100.10	369
101.10	29
102.10	29
103.10	42
105.10	29
106.10	24
108.10	44
109.10	24
110.10	78
111.10	22
113.10	14
114.10	55
115.10	27
117.00	985
118.00	65
119.00	1239
120.00	46
121.00	289
122.00	30
123.00	81
124.00	30
125.00	41
126.00	55
127.00	3
128.00	27
129.00	70
131.00	50
132.00	24
133.00	44
134.00	57
135.00	19
136.00	34
137.00	81
138.00	52
139.00	14
140.00	57
141.00	19
142.00	31
143.00	33
145.00	50
146.00	79
147.00	6
148.00	60
149.00	29
150.00	49
151.00	2
152.00	52
153.00	44
154.00	52
155.00	29
156.00	46
157.00	26
158.00	33
159.00	31
160.00	52
161.00	8
162.00	60
163.00	38
164.00	31
165.00	36
166.00	21
167.00	14
168.00	31
169.00	41
170.00	30
171.00	57
172.00	22
173.00	33
174.00	21
175.00	41
176.00	42
177.00	30
178.00	44
179.00	24
180.00	36
181.00	58
182.00	22
183.00	13
184.00	13
185.00	13
186.00	10
187.00	70
188.00	22
189.00	54
191.00	18
192.00	19
193.00	54
195.00	26
196.00	50
197.00	11
198.00	46
199.00	33
200.00	3
202.00	30
203.00	41
204.00	39
205.00	22
206.00	47
207.00	55
208.00	21
209.00	44
211.00	33
213.00	49
214.00	47
215.00	47
216.00	16
217.00	18
219.00	36
221.00	47
222.00	19
223.00	11
224.00	8
227.00	42
229.00	57
230.00	52
231.00	6
232.00	42
233.00	54
235.00	13
236.00	2
237.00	42
238.00	10
239.00	33
241.00	76
242.00	26
245.00	21
247.00	24
248.00	6
250.00	34
252.00	81
253.00	30
254.00	33
255.00	26
256.00	8
257.00	10
258.00	24
259.00	10
260.00	41
262.00	24
263.00	19
265.00	5
266.00	82
267.00	33
268.00	27
269.00	16
270.00	13
271.00	29
272.00	22
273.00	76
274.00	47
276.00	26
277.00	42
278.00	34
279.00	78
280.00	24
281.00	58
282.00	46
283.00	10
284.00	24
285.00	19
287.00	42
288.00	16
290.00	13
291.00	27
292.00	22
293.00	29
295.00	19
296.00	21
297.00	47
298.00	46
301.00	2
302.00	10
303.00	42
304.00	29
307.00	62
308.00	16
309.00	16
311.00	52
313.00	57
314.00	70
315.00	24
316.00	6
317.00	13
318.00	89
320.00	24
321.00	82
322.00	30
323.00	29
324.00	10
325.00	62
326.00	36
327.00	36
328.00	41
329.00	14
330.00	36
331.00	18
332.00	14
334.00	19
335.00	22
336.00	21
337.00	21
338.00	49
339.00	30
340.00	42
341.00	14
342.00	2
343.00	10
344.00	24
345.00	57
347.00	36
348.00	30
349.00	22
350.00	30
351.00	49
352.00	74
353.00	38
354.00	55
355.00	30
356.00	65
357.00	33
358.00	6
360.00	22
361.00	24
362.00	30
363.00	6
364.00	13
365.00	98
367.00	50
369.00	27
371.00	50
372.00	22
373.00	26
376.00	52
377.00	42
378.00	42
380.00	34
381.00	27
382.00	55
384.00	27
385.00	3
386.00	8
387.00	55
388.00	31
389.00	18
390.00	11
391.00	21
392.00	42
394.00	44
395.00	34
396.00	3
397.00	52
398.00	31
399.00	30
400.00	18
[MS Spectrum]	
# of Peaks	179
Raw Spectrum	2.117 -> 2.120 (scan : 71 -> 73)
Background	2.075 <-> 2.128 (scan : 46 <-> 78)
Base Peak	m/z 43.10 (Inten : 9,984)
Event#	1
m/z	Absolute Intensity
35.00	95
37.00	31
39.10	619
40.05	581
41.10	3198
42.10	3829
43.10	9984
47.10	216
48.10	5
49.10	66
50.10	173
51.10	131
52.10	86
53.10	174
54.10	66
55.15	217
56.10	1811
57.15	4681
58.20	279
59.20	17
60.20	29
63.20	24
65.20	42
67.20	91
68.20	4
69.15	341
70.20	347
71.20	277
74.10	45
75.10	38
76.10	86
77.10	68
78.10	171
79.10	140
82.10	169
84.15	1493
85.15	4935
86.10	363
90.10	22
93.10	28
95.10	33
98.10	43
99.10	59
100.10	398
101.10	12
108.10	11
110.10	45
116.10	22
117.00	658
119.00	895
121.00	186
123.00	42
124.00	30
125.00	29
126.00	15
128.00	5
131.00	11
132.10	9
133.00	39
134.00	50
137.00	8
138.00	33
139.10	8
142.00	8
145.00	1
146.00	10
149.10	13
150.00	8
151.10	6
152.00	2
154.00	17
158.00	10
159.10	41
162.10	32
163.00	31
164.00	7
168.00	11
169.00	26
171.00	22
172.10	23
173.00	35
174.10	30
180.10	26
181.00	34
184.10	20
187.00	40
188.10	26
189.00	1
193.10	29
196.00	25
197.10	18
198.00	31
199.00	26
203.00	8
204.00	45
207.10	22
213.00	7
214.00	25
219.00	22
224.10	26
227.00	22
229.00	45
232.00	15
233.00	54
234.00	10
237.00	25
239.00	50
243.10	7
247.00	8
253.00	11
255.00	1
256.00	11
258.00	7
259.10	3
260.10	57
266.00	29
268.10	55
274.00	31
276.10	44
278.00	14
279.00	4
282.00	18
285.00	2
287.00	25
288.10	9
292.10	8
293.10	8
296.10	29
297.00	21
301.10	3
303.00	19
304.10	27
307.00	15
311.00	41
314.00	21
315.00	6
318.00	40
319.10	2
320.10	21
321.00	46
325.00	9
326.10	7
327.00	51
332.10	25
334.10	21
336.10	5
337.10	28
338.00	51
341.00	20
343.10	13
344.00	6
345.00	21
347.10	34
348.10	43
351.00	31
352.10	88
353.00	21
356.00	6
360.00	7
362.00	13
365.00	61
367.10	47
369.10	16
376.00	11
377.10	45
378.00	22
380.00	13
381.10	17
382.00	57
386.10	11
388.10	14
391.00	3
392.00	41
393.10	18
394.00	27
396.10	7
397.10	42
398.00	11
399.00	19
[MS Spectrum]	
# of Peaks	176
Raw Spectrum	2.138 -> 2.142 (scan : 84 -> 86)
Background	2.128 <-> 2.158 (scan : 78 <-> 96)
Base Peak	m/z 56.15 (Inten : 12,577)
Event#	1
m/z	Absolute Intensity
35.00	9
36.00	2
38.00	13
39.10	1500
40.05	506
41.10	8185
42.10	3250
43.10	7278
44.05	216
45.10	263
46.10	44
48.10	31
49.10	55
50.10	103
51.10	88
53.10	316
54.10	59
55.10	2113
56.15	12577
57.10	2112
58.10	12
62.10	66
65.10	12
67.10	37
70.10	147
71.10	1038
72.10	10
73.10	71
74.10	155
75.10	20
76.10	25
78.10	25
79.10	53
81.10	45
83.10	3
88.10	1
93.00	20
94.00	15
95.00	29
96.00	5
98.00	3
99.10	9
100.00	27
101.00	11
104.10	14
107.00	5
110.00	27
116.00	2
117.00	60
119.00	8
121.10	3
123.10	11
124.00	17
126.10	31
127.00	1
128.00	37
132.00	12
133.10	35
134.10	36
138.10	23
139.10	56
140.00	30
146.00	15
147.00	27
149.10	22
150.10	35
151.00	32
152.00	22
154.10	17
156.10	24
157.10	32
159.00	29
162.00	25
167.00	9
168.00	64
169.10	43
171.00	18
172.00	18
173.00	27
174.00	26
176.00	10
177.00	73
181.10	22
182.10	3
184.00	10
185.00	5
187.00	19
188.10	32
192.00	13
193.00	19
197.00	3
203.00	4
206.00	3
207.00	14
209.00	22
212.00	59
214.00	36
215.10	28
216.00	30
217.00	26
219.10	5
221.10	18
223.00	8
224.00	45
226.00	35
227.00	32
230.10	13
231.00	13
232.00	6
233.10	10
236.00	29
237.10	36
239.10	11
242.00	50
243.00	15
247.10	1
248.00	31
249.10	8
250.10	17
253.10	32
255.00	7
256.00	25
258.00	7
259.10	2
262.10	2
265.00	25
266.00	2
272.00	15
275.00	2
276.00	3
286.00	65
287.10	37
290.00	38
291.10	2
300.00	2
303.00	36
306.10	64
311.00	67
312.00	4
313.00	1
314.10	2
315.00	1
317.10	8
321.00	8
327.00	30
331.00	50
332.10	6
334.00	19
335.00	6
336.00	23
338.10	30
340.00	9
341.10	11
343.00	25
344.00	6
346.10	19
347.10	19
350.10	19
352.10	9
356.10	17
359.10	13
362.00	33
363.10	2
365.00	74
375.00	19
376.00	16
377.10	32
382.10	8
385.10	19
392.00	1
393.00	39
394.00	8
395.00	60
396.10	2
397.10	1
400.00	41
[MS Spectrum]	
# of Peaks	216
Raw Spectrum	2.175 -> 2.178 (scan : 106 -> 108)
Background	2.158 <-> 2.208 (scan : 96 <-> 126)
Base Peak	m/z 43.10 (Inten : 17,041)
Event#	1
m/z	Absolute Intensity
35.00	9
36.00	32
39.10	1785
40.05	217
41.10	7001
42.10	1262
43.10	17041
44.05	937
45.10	371
46.10	32
48.10	21
50.10	107
51.10	84
53.10	383
54.10	36
55.10	2275
56.15	5781
57.10	8028
58.10	206
62.10	20
63.10	19
64.10	29
65.10	30
66.10	4
67.10	50
69.10	337
70.15	7481
71.15	8723
72.10	318
74.10	9
75.10	14
76.10	2
80.10	53
81.10	91
82.10	5
84.10	220
85.10	741
86.10	79
87.10	8
89.10	71
90.10	17
91.10	13
95.10	78
96.10	27
97.10	1
98.10	33
99.10	18
100.25	608
101.10	43
102.20	6
103.10	27
105.20	4
106.10	12
108.20	5
109.10	17
110.10	24
113.20	10
115.10	29
117.10	3
118.10	15
122.10	49
123.10	23
124.10	21
128.10	2
129.10	41
131.20	14
132.10	16
133.20	26
134.10	42
135.20	39
136.10	26
138.20	6
139.20	49
142.10	20
143.10	2
144.20	30
145.10	17
146.10	8
147.10	107
149.10	90
150.10	12
151.20	5
153.10	52
158.10	36
159.10	11
161.10	28
164.20	63
165.10	7
166.10	9
169.10	46
172.10	51
174.10	61
175.10	52
176.10	2
177.10	46
178.10	15
179.10	43
180.10	37
181.20	2
185.10	8
188.10	47
189.20	47
190.10	3
192.20	31
194.10	61
196.10	24
198.10	1
199.10	2
200.10	18
203.10	40
204.20	14
205.10	17
208.20	42
210.10	12
211.10	59
213.20	15
214.10	48
215.10	46
218.10	58
219.20	37
220.10	6
221.10	16
223.20	4
224.10	16
226.10	6
227.10	30
228.10	12
230.20	17
232.20	6
238.10	36
239.20	54
243.20	43
244.10	25
246.10	26
247.10	32
249.10	36
250.10	32
251.10	8
252.20	29
253.10	30
255.10	25
257.20	38
259.10	15
262.20	38
263.10	26
264.10	25
267.10	54
271.10	4
274.10	15
276.20	8
277.20	13
280.10	29
281.10	46
283.10	7
285.20	12
286.10	13
288.10	4
290.10	30
291.10	30
292.20	2
293.10	45
294.10	13
297.20	47
300.10	4
303.10	42
306.10	12
308.20	10
310.10	5
311.10	15
312.20	9
313.10	42
318.10	46
322.10	41
324.10	4
325.10	20
326.10	2
327.10	54
328.10	23
330.10	53
332.20	17
333.10	23
335.20	10
337.20	1
338.10	6
340.20	9
342.10	16
343.20	17
346.10	46
348.20	3
351.10	47
353.10	17
354.20	27
355.10	12
356.10	2
357.20	54
358.20	13
359.10	4
361.10	7
362.10	24
363.10	6
365.10	25
371.20	19
372.10	18
374.10	15
375.10	20
382.10	57
385.20	1
388.10	69
390.20	21
391.20	20
393.20	43
396.10	6
397.10	38
398.10	2
399.20	14
400.10	3
[MS Spectrum]	
# of Peaks	187
Raw Spectrum	2.247 -> 2.250 (scan : 149 -> 151)
Background	2.218 <-> 2.278 (scan : 132 <-> 168)
Base Peak	m/z 43.10 (Inten : 12,154)
Event#	1
m/z	Absolute Intensity
35.00	79
36.00	43
38.00	127
39.10	1142
40.05	201
41.10	3203
42.10	1103
43.10	12154
44.05	509
45.10	2950
46.10	206
47.15	797
48.10	48
49.20	20
50.10	58
51.10	8
52.10	106
53.10	203
55.10	2498
56.15	2382
57.05	1366
58.10	883
59.10	9
60.20	71
61.10	15
63.10	16
65.10	29
66.10	5
67.10	216
68.20	154
69.15	1319
70.15	3956
71.15	2129
72.10	75
74.20	19
75.10	139
78.10	37
80.10	3
81.10	37
83.10	968
84.10	56
85.10	57
86.15	1754
87.20	87
89.10	26
90.20	4
91.10	126
95.10	56
97.10	55
98.10	125
99.20	5
100.10	18
101.10	5
103.10	29
105.10	30
108.10	74
109.10	25
110.20	10
111.10	15
112.10	31
113.10	19
114.20	9
117.20	39
118.10	18
119.10	9
121.10	65
125.10	49
126.20	9
127.10	81
128.10	9
130.10	17
131.10	27
132.10	29
133.10	6
134.10	7
137.10	34
138.10	20
139.20	37
141.10	49
144.10	15
145.20	5
147.10	8
149.10	21
151.10	7
154.10	22
159.20	19
160.20	7
162.20	2
163.10	11
165.10	10
169.10	21
171.10	20
176.10	28
179.20	8
181.10	15
184.10	37
185.20	17
186.10	39
190.20	5
191.20	16
192.20	40
193.20	37
200.10	42
202.20	46
207.20	39
214.10	14
217.10	5
220.10	55
221.10	17
222.10	4
224.10	37
227.10	7
228.10	1
232.20	21
233.20	35
237.10	25
239.10	41
241.10	10
243.10	33
244.10	17
246.10	18
249.20	21
251.10	17
252.10	75
253.20	6
257.10	24
258.10	11
261.20	20
264.20	77
269.20	26
271.10	8
272.10	14
277.10	42
279.20	19
280.10	10
282.20	25
286.20	3
288.20	17
289.10	15
290.20	4
291.10	27
292.20	20
294.10	3
298.10	11
299.10	13
303.10	10
312.10	18
314.20	13
315.20	5
316.20	17
318.10	22
319.20	8
323.10	61
324.10	7
325.10	20
326.20	25
330.10	27
333.10	32
334.10	21
337.10	27
339.10	4
341.10	9
346.10	5
348.20	24
350.20	27
354.20	10
357.10	7
358.10	2
362.10	16
363.10	14
366.10	21
369.20	2
374.10	34
377.20	6
379.20	4
382.20	42
383.20	18
384.10	3
386.10	43
389.20	14
390.20	26
391.20	1
392.10	45
393.20	14
394.20	11
396.10	34
398.20	7
[MS Spectrum]	
# of Peaks	169
Raw Spectrum	2.300 -> 2.303 (scan : 181 -> 183)
Background	2.278 <-> 2.315 (scan : 168 <-> 190)
Base Peak	m/z 44.10 (Inten : 33,467)
Event#	1
m/z	Absolute Intensity
35.00	21
37.00	55
38.10	473
39.10	3827
40.05	894
41.15	10945
42.10	3041
43.10	6485
44.10	33467
45.10	3065
46.10	78
48.10	40
49.10	81
50.10	222
51.10	287
52.10	110
53.10	598
54.10	80
55.15	807
57.10	9939
58.10	13055
59.10	563
62.10	19
63.10	81
66.10	9
67.15	448
68.10	203
73.20	6
75.10	9
78.20	45
81.20	59
86.15	688
87.20	26
88.10	15
89.10	28
91.10	41
92.10	6
95.10	3
96.20	42
97.20	47
102.10	50
105.10	11
107.20	3
109.10	26
111.20	9
116.10	32
117.10	9
119.10	10
123.20	10
126.10	9
127.10	49
129.20	20
131.20	3
133.10	7
134.20	8
137.10	40
138.10	11
141.20	63
142.10	9
143.10	41
146.20	53
149.10	24
150.10	18
152.10	72
158.10	46
160.20	12
162.10	7
166.10	39
169.10	2
172.20	6
174.20	24
176.20	4
178.10	25
179.20	12
180.10	19
182.10	1
184.10	26
186.20	14
187.10	34
191.20	10
194.10	3
196.20	6
198.10	47
201.10	11
202.10	31
205.20	27
211.20	11
212.10	45
213.10	27
215.10	76
216.10	34
220.20	3
221.10	5
224.10	34
225.20	28
226.10	20
227.20	36
228.10	2
232.10	15
235.10	28
237.10	14
240.10	6
243.10	3
246.10	27
247.10	14
250.10	16
251.20	20
252.10	10
255.20	28
256.10	42
257.10	3
261.20	49
262.10	23
264.10	3
265.20	28
266.20	6
269.10	22
270.10	11
272.20	14
275.10	20
280.20	24
281.10	30
285.20	18
288.10	7
289.10	5
291.10	60
298.10	13
299.10	20
300.10	60
301.10	26
304.10	20
309.20	13
310.10	13
312.20	9
315.10	13
317.10	22
318.20	9
321.20	13
323.10	33
325.20	12
330.10	48
334.20	7
340.20	39
342.20	8
344.10	7
345.20	64
346.20	10
348.10	43
356.10	24
357.20	25
358.10	2
359.10	5
362.10	20
364.10	43
365.10	23
366.10	11
369.20	21
371.20	6
374.10	4
379.20	13
380.10	26
382.20	5
383.20	2
388.10	32
390.10	3
394.10	24
397.10	29
398.20	19
400.10	16
[MS Spectrum]	
# of Peaks	160
Raw Spectrum	2.327 -> 2.330 (scan : 197 -> 199)
Background	2.315 <-> 2.362 (scan : 190 <-> 218)
Base Peak	m/z 43.10 (Inten : 42,446)
Event#	1
m/z	Absolute Intensity
38.10	197
39.10	4642
40.10	810
41.10	22134
42.15	8461
43.10	42446
47.10	94
49.10	15
51.10	113
52.10	133
53.10	783
54.10	307
55.10	4905
56.15	13720
57.15	21452
58.10	117
61.10	19
62.10	303
63.10	179
64.10	1
65.10	161
66.10	95
67.10	84
69.10	329
70.15	10671
71.15	21532
72.15	978
73.10	20
74.10	2
75.20	15
76.10	55
79.10	56
80.10	53
81.10	147
82.10	89
84.10	42
85.10	921
88.10	1
89.10	38
90.10	12
91.10	76
96.10	68
97.10	62
98.10	53
100.15	6687
101.20	375
102.20	27
103.20	40
105.20	105
109.20	15
111.20	50
113.20	27
115.20	10
119.20	13
122.20	13
126.20	24
127.20	45
130.20	20
136.20	11
137.20	39
146.20	1
150.20	22
152.20	5
158.20	26
160.20	5
161.20	39
163.20	26
165.20	1
166.20	24
169.20	72
171.20	31
178.20	21
180.20	3
190.20	11
195.20	24
196.20	47
201.20	13
202.20	9
207.20	87
209.20	9
210.20	11
211.20	4
212.20	2
213.20	24
215.20	11
221.20	44
225.20	44
227.20	13
230.20	23
231.20	10
237.20	19
240.20	12
246.20	45
247.20	11
249.20	2
250.20	21
251.20	35
253.20	7
256.20	12
257.20	29
259.20	13
260.20	12
261.20	17
265.20	75
268.20	14
270.20	8
274.20	5
275.20	13
277.20	8
279.20	15
282.20	17
283.20	12
285.20	10
287.20	3
291.20	19
296.20	5
297.20	16
298.20	37
300.20	41
301.20	27
309.20	21
313.20	5
314.20	9
318.20	15
320.20	3
322.20	2
323.20	25
327.20	1
328.20	5
329.20	2
330.20	4
331.20	9
333.20	34
339.20	10
340.20	101
342.20	40
343.20	19
345.20	4
346.20	32
348.20	42
349.20	39
351.20	4
355.20	9
356.20	53
357.20	5
359.20	32
364.20	22
365.20	54
369.20	16
370.20	27
371.20	29
373.20	16
374.20	2
375.20	44
379.20	18
383.20	19
390.20	11
395.20	23
399.20	10
400.20	16
[MS Spectrum]	
# of Peaks	212
Raw Spectrum	2.523 -> 2.527 (scan : 315 -> 317)
Background	2.495 <-> 2.562 (scan : 298 <-> 338)
Base Peak	m/z 83.15 (Inten : 45,017)
Event#	1
m/z	Absolute Intensity
37.00	51
38.15	375
39.10	8456
40.05	1398
41.10	20600
42.10	12925
43.10	4051
44.05	94
45.10	235
46.10	25
47.10	73
49.10	42
50.10	301
51.00	559
52.00	356
53.10	2599
54.15	2157
55.10	44477
56.10	12989
57.10	2606
58.10	53
61.10	21
62.10	100
63.10	99
64.10	35
65.10	650
66.10	111
67.10	2595
68.10	4415
69.10	9181
70.15	8975
71.10	435
72.10	39
73.10	85
74.10	18
75.10	56
76.10	26
77.10	548
79.10	273
80.10	20
81.15	998
82.15	8747
83.15	45017
84.10	3055
85.10	184
86.10	13
87.10	14
89.10	8
91.10	78
92.10	3
93.10	2
95.10	26
96.10	184
97.15	1349
98.15	20823
99.10	1712
100.10	25
102.10	45
103.10	54
104.10	12
109.10	17
110.10	6
111.10	24
112.10	35
115.10	61
117.10	9
118.10	23
119.10	10
122.10	6
123.10	6
125.10	6
129.10	56
132.10	31
133.10	3
136.10	31
140.10	51
144.10	14
145.10	8
146.10	27
148.10	31
157.10	5
159.10	21
162.10	42
168.10	7
170.10	33
173.10	17
175.10	23
178.10	4
179.10	7
180.10	35
182.10	16
184.10	21
185.10	32
186.10	13
189.10	1
194.10	39
200.10	37
202.10	10
203.10	2
204.10	5
206.10	15
209.10	50
211.10	18
212.10	31
213.10	18
214.10	44
219.10	23
220.10	11
221.10	20
223.10	49
224.10	14
225.10	42
227.10	6
228.10	21
229.10	6
230.10	38
232.10	12
233.10	2
234.10	59
235.10	12
236.10	32
238.10	14
239.10	9
240.10	1
241.10	18
242.10	1
243.10	22
244.10	30
245.10	24
246.10	70
249.10	57
250.10	46
254.10	58
260.10	31
263.10	20
265.10	7
267.10	3
270.10	3
272.10	9
274.10	9
275.10	19
279.10	1
283.10	1
284.10	6
285.10	34
288.10	10
291.10	22
294.10	50
296.10	27
298.10	9
300.10	25
304.10	6
305.10	30
308.10	2
309.10	17
310.10	14
311.10	6
312.10	32
313.10	29
314.10	1
317.10	1
318.10	21
319.10	5
320.10	11
322.10	13
324.10	47
325.10	5
326.10	34
329.10	36
330.10	23
331.10	9
332.10	19
333.10	15
335.10	16
336.10	31
337.10	2
338.10	31
339.10	54
341.10	22
342.10	27
343.10	42
345.10	4
346.10	26
351.10	31
352.10	16
353.10	65
354.10	1
355.10	44
359.10	8
360.10	78
361.10	43
364.10	6
365.10	19
366.10	22
367.10	16
372.10	53
373.10	27
374.10	22
375.10	5
376.10	24
377.10	10
379.10	23
382.10	15
384.10	24
386.10	44
389.10	28
390.10	17
392.10	23
394.10	24
396.10	1
397.10	23
400.10	11
[MS Spectrum]	
# of Peaks	183
Raw Spectrum	2.590 -> 2.593 (scan : 355 -> 357)
Background	2.565 <-> 2.625 (scan : 340 <-> 376)
Base Peak	m/z 43.10 (Inten : 3,704)
Event#	1
m/z	Absolute Intensity
37.00	6
38.00	87
39.10	964
40.05	580
41.10	3391
42.10	1491
43.10	3704
44.05	212
45.10	52
46.10	24
47.10	56
49.10	39
50.10	67
51.10	75
53.10	393
54.10	135
55.05	1496
56.15	1610
57.20	1071
58.10	1412
59.10	61
60.10	28
61.10	48
62.10	86
63.10	25
65.10	119
66.10	18
67.10	529
68.10	2553
69.15	3331
70.10	1621
71.10	45
75.10	15
77.10	15
80.10	49
81.10	72
83.10	193
85.15	476
87.20	40
88.20	11
89.20	27
90.20	8
95.20	1
96.10	13
97.10	19
98.20	397
99.20	70
100.20	352
101.10	34
103.10	48
104.20	23
105.10	29
107.10	79
108.20	24
111.20	2
114.10	12
115.10	19
116.10	12
117.20	1
120.20	51
124.20	29
125.10	68
130.10	35
131.10	11
133.10	54
134.10	2
135.10	40
136.20	12
137.10	26
138.20	10
147.10	36
151.10	28
156.10	57
157.20	17
159.10	1
161.10	29
162.10	14
163.20	2
166.10	13
167.10	29
168.10	1
169.10	18
172.10	15
180.10	18
183.20	3
186.10	31
190.10	33
199.20	14
200.20	16
201.10	1
202.20	14
204.10	5
210.10	26
211.10	6
213.20	24
214.10	34
216.20	11
221.10	57
223.20	4
225.20	17
226.10	15
229.20	9
232.10	15
233.10	2
235.10	11
237.20	7
240.10	40
246.10	4
248.10	31
253.10	32
255.10	4
258.10	15
259.20	7
267.10	39
271.10	3
272.10	32
274.20	12
276.10	12
279.10	31
280.20	4
282.10	1
283.20	1
289.20	3
297.20	12
298.10	22
300.10	32
302.20	9
303.20	40
307.20	24
308.20	38
312.20	28
313.20	50
315.10	7
316.20	16
317.10	28
318.20	31
320.10	84
321.10	10
322.20	5
325.20	48
326.20	17
327.20	28
328.10	27
329.10	25
330.10	20
331.10	34
332.20	19
333.10	20
335.20	6
336.20	17
344.10	46
346.20	43
350.10	13
352.10	37
353.10	36
355.10	32
356.10	2
357.20	21
362.10	9
363.10	6
365.20	28
366.10	24
367.10	38
368.20	18
370.10	8
371.10	36
372.10	2
374.10	25
375.20	75
376.20	8
378.10	33
379.10	14
380.20	24
381.10	36
383.10	40
384.10	53
385.10	28
394.10	41
395.10	13
396.20	5
397.10	22
398.20	6
400.10	5
[MS Spectrum]	
# of Peaks	216
Raw Spectrum	2.712 -> 2.715 (scan : 428 -> 430)
Background	2.688 <-> 2.755 (scan : 414 <-> 454)
Base Peak	m/z 43.10 (Inten : 29,354)
Event#	1
m/z	Absolute Intensity
36.00	13
37.00	143
38.10	543
39.10	3327
40.05	89
41.10	13172
42.10	3663
43.10	29354
44.05	1867
45.05	2321
46.00	184
47.00	212
48.00	12
49.00	92
50.10	100
52.00	25
53.00	302
55.10	1364
59.10	139
60.00	458
61.10	25
62.10	4
63.10	9
64.10	16
67.10	31
69.10	67
71.05	703
73.10	7973
74.10	395
75.10	2
76.10	10
77.10	118
78.10	25
80.10	47
81.10	60
82.10	42
84.10	51
87.10	250
88.10	2547
89.10	95
93.10	35
94.10	2
95.10	46
97.10	53
99.10	26
101.10	45
103.10	36
104.10	15
105.10	41
106.10	47
107.10	27
108.10	14
111.10	15
113.10	61
114.10	14
115.10	1
117.10	13
118.10	3
119.10	23
